Index,T (C),P (kbars),log(10) f O2,mass (gm),rho (gm/cc),wt% SiO2,wt% TiO2,wt% Al2O3,wt% Fe2O3,wt% Cr2O3,wt% FeO,wt% MnO,wt% MgO,wt% NiO,wt% CoO,wt% CaO,wt% Na2O,wt% K2O,wt% P2O5,wt% H2O,wt% CO2,wt% SO3,wt% Cl2O-1,wt% F2O-1,G (kJ),H (kJ),S (J/K),V (cc),Cp (J/K)
350,863.00,0.001,-11.223,0.0245,2.5352,100.0000,0.0000,0.0000,0.0000,0.0000,0.0000,0.0000,0.0000,0.0000,0.0000,0.0000,0.0000,0.0000,0.0000,0.0000,0.0000,0.0000,0.0000,0.0000,-0.407,-0.349,0.051,0.010,0.029
351,862.00,0.001,-11.242,0.2867,2.5352,100.0000,0.0000,0.0000,0.0000,0.0000,0.0000,0.0000,0.0000,0.0000,0.0000,0.0000,0.0000,0.0000,0.0000,0.0000,0.0000,0.0000,0.0000,0.0000,-4.767,-4.089,0.597,0.113,0.336
352,861.00,0.001,-11.261,0.5410,2.5352,100.0000,0.0000,0.0000,0.0000,0.0000,0.0000,0.0000,0.0000,0.0000,0.0000,0.0000,0.0000,0.0000,0.0000,0.0000,0.0000,0.0000,0.0000,0.0000,-8.995,-7.718,1.126,0.213,0.634
353,860.00,0.001,-11.280,0.7880,2.5352,100.0000,0.0000,0.0000,0.0000,0.0000,0.0000,0.0000,0.0000,0.0000,0.0000,0.0000,0.0000,0.0000,0.0000,0.0000,0.0000,0.0000,0.0000,0.0000,-13.100,-11.242,1.639,0.311,0.924
354,859.00,0.001,-11.299,1.0281,2.5352,100.0000,0.0000,0.0000,0.0000,0.0000,0.0000,0.0000,0.0000,0.0000,0.0000,0.0000,0.0000,0.0000,0.0000,0.0000,0.0000,0.0000,0.0000,0.0000,-17.088,-14.668,2.137,0.406,1.205
355,858.00,0.001,-11.318,1.2617,2.5352,100.0000,0.0000,0.0000,0.0000,0.0000,0.0000,0.0000,0.0000,0.0000,0.0000,0.0000,0.0000,0.0000,0.0000,0.0000,0.0000,0.0000,0.0000,0.0000,-20.968,-18.002,2.622,0.498,1.479
356,857.00,0.001,-11.337,1.4893,2.5352,100.0000,0.0000,0.0000,0.0000,0.0000,0.0000,0.0000,0.0000,0.0000,0.0000,0.0000,0.0000,0.0000,0.0000,0.0000,0.0000,0.0000,0.0000,0.0000,-24.748,-21.253,3.093,0.587,1.746
357,856.00,0.001,-11.356,1.7116,2.5352,100.0000,0.0000,0.0000,0.0000,0.0000,0.0000,0.0000,0.0000,0.0000,0.0000,0.0000,0.0000,0.0000,0.0000,0.0000,0.0000,0.0000,0.0000,0.0000,-28.438,-24.426,3.553,0.675,2.006
358,855.00,0.001,-11.375,1.9289,2.5352,100.0000,0.0000,0.0000,0.0000,0.0000,0.0000,0.0000,0.0000,0.0000,0.0000,0.0000,0.0000,0.0000,0.0000,0.0000,0.0000,0.0000,0.0000,0.0000,-32.045,-27.530,4.002,0.761,2.260
359,854.00,0.001,-11.395,2.1421,2.5352,100.0000,0.0000,0.0000,0.0000,0.0000,0.0000,0.0000,0.0000,0.0000,0.0000,0.0000,0.0000,0.0000,0.0000,0.0000,0.0000,0.0000,0.0000,0.0000,-35.582,-30.575,4.442,0.845,2.510
360,853.00,0.001,-11.414,2.3517,2.5352,100.0000,0.0000,0.0000,0.0000,0.0000,0.0000,0.0000,0.0000,0.0000,0.0000,0.0000,0.0000,0.0000,0.0000,0.0000,0.0000,0.0000,0.0000,0.0000,-39.060,-33.570,4.875,0.928,2.755
361,852.00,0.001,-11.433,2.5587,2.5352,100.0000,0.0000,0.0000,0.0000,0.0000,0.0000,0.0000,0.0000,0.0000,0.0000,0.0000,0.0000,0.0000,0.0000,0.0000,0.0000,0.0000,0.0000,0.0000,-42.491,-36.527,5.301,1.009,2.998
362,851.00,0.001,-11.453,2.7638,2.5352,100.0000,0.0000,0.0000,0.0000,0.0000,0.0000,0.0000,0.0000,0.0000,0.0000,0.0000,0.0000,0.0000,0.0000,0.0000,0.0000,0.0000,0.0000,0.0000,-45.893,-39.459,5.723,1.090,3.238
363,850.00,0.001,-11.472,2.9685,2.5352,100.0000,0.0000,0.0000,0.0000,0.0000,0.0000,0.0000,0.0000,0.0000,0.0000,0.0000,0.0000,0.0000,0.0000,0.0000,0.0000,0.0000,0.0000,0.0000,-49.285,-42.385,6.144,1.171,3.477
364,849.00,0.001,-11.491,3.1744,2.5352,100.0000,0.0000,0.0000,0.0000,0.0000,0.0000,0.0000,0.0000,0.0000,0.0000,0.0000,0.0000,0.0000,0.0000,0.0000,0.0000,0.0000,0.0000,0.0000,-52.696,-45.328,6.567,1.252,3.718
365,848.00,0.001,-11.511,3.3838,2.5352,100.0000,0.0000,0.0000,0.0000,0.0000,0.0000,0.0000,0.0000,0.0000,0.0000,0.0000,0.0000,0.0000,0.0000,0.0000,0.0000,0.0000,0.0000,0.0000,-56.166,-48.322,6.996,1.335,3.963
366,847.00,0.001,-11.530,3.6006,2.5352,100.0000,0.0000,0.0000,0.0000,0.0000,0.0000,0.0000,0.0000,0.0000,0.0000,0.0000,0.0000,0.0000,0.0000,0.0000,0.0000,0.0000,0.0000,0.0000,-59.756,-51.421,7.441,1.420,4.216
367,846.00,0.001,-11.550,3.8317,2.5352,100.0000,0.0000,0.0000,0.0000,0.0000,0.0000,0.0000,0.0000,0.0000,0.0000,0.0000,0.0000,0.0000,0.0000,0.0000,0.0000,0.0000,0.0000,0.0000,-63.584,-54.727,7.914,1.511,4.486
368,845.00,0.001,-11.569,4.0935,2.5352,100.0000,0.0000,0.0000,0.0000,0.0000,0.0000,0.0000,0.0000,0.0000,0.0000,0.0000,0.0000,0.0000,0.0000,0.0000,0.0000,0.0000,0.0000,0.0000,-67.920,-58.471,8.451,1.615,4.792
369,844.00,0.001,-11.589,4.4599,2.5352,100.0000,0.0000,0.0000,0.0000,0.0000,0.0000,0.0000,0.0000,0.0000,0.0000,0.0000,0.0000,0.0000,0.0000,0.0000,0.0000,0.0000,0.0000,0.0000,-73.991,-63.710,9.203,1.759,5.221
370,843.00,0.001,-11.608,6.7998,2.5352,100.0000,0.0000,0.0000,0.0000,0.0000,0.0000,0.0000,0.0000,0.0000,0.0000,0.0000,0.0000,0.0000,0.0000,0.0000,0.0000,0.0000,0.0000,0.0000,-112.796,-97.143,14.024,2.682,7.959
371,842.00,0.001,-11.628,6.7998,2.5352,100.0000,0.0000,0.0000,0.0000,0.0000,0.0000,0.0000,0.0000,0.0000,0.0000,0.0000,0.0000,0.0000,0.0000,0.0000,0.0000,0.0000,0.0000,0.0000,-112.782,-97.151,14.016,2.682,7.958
372,841.00,0.001,-11.648,6.7998,2.5352,100.0000,0.0000,0.0000,0.0000,0.0000,0.0000,0.0000,0.0000,0.0000,0.0000,0.0000,0.0000,0.0000,0.0000,0.0000,0.0000,0.0000,0.0000,0.0000,-112.768,-97.159,14.009,2.682,7.957
373,840.00,0.001,-11.667,6.7998,2.5352,100.0000,0.0000,0.0000,0.0000,0.0000,0.0000,0.0000,0.0000,0.0000,0.0000,0.0000,0.0000,0.0000,0.0000,0.0000,0.0000,0.0000,0.0000,0.0000,-112.754,-97.167,14.002,2.682,7.956
374,839.00,0.001,-11.687,6.7998,2.5352,100.0000,0.0000,0.0000,0.0000,0.0000,0.0000,0.0000,0.0000,0.0000,0.0000,0.0000,0.0000,0.0000,0.0000,0.0000,0.0000,0.0000,0.0000,0.0000,-112.740,-97.175,13.995,2.682,7.955
375,838.00,0.001,-11.707,6.7998,2.5352,100.0000,0.0000,0.0000,0.0000,0.0000,0.0000,0.0000,0.0000,0.0000,0.0000,0.0000,0.0000,0.0000,0.0000,0.0000,0.0000,0.0000,0.0000,0.0000,-112.726,-97.183,13.988,2.682,7.954
376,837.00,0.001,-11.727,6.7998,2.5352,100.0000,0.0000,0.0000,0.0000,0.0000,0.0000,0.0000,0.0000,0.0000,0.0000,0.0000,0.0000,0.0000,0.0000,0.0000,0.0000,0.0000,0.0000,0.0000,-112.712,-97.191,13.981,2.682,7.954
377,836.00,0.001,-11.747,6.7998,2.5352,100.0000,0.0000,0.0000,0.0000,0.0000,0.0000,0.0000,0.0000,0.0000,0.0000,0.0000,0.0000,0.0000,0.0000,0.0000,0.0000,0.0000,0.0000,0.0000,-112.698,-97.199,13.973,2.682,7.953
378,835.00,0.001,-11.766,6.7998,2.5352,100.0000,0.0000,0.0000,0.0000,0.0000,0.0000,0.0000,0.0000,0.0000,0.0000,0.0000,0.0000,0.0000,0.0000,0.0000,0.0000,0.0000,0.0000,0.0000,-112.684,-97.207,13.966,2.682,7.952
379,834.00,0.001,-11.786,6.7998,2.5352,100.0000,0.0000,0.0000,0.0000,0.0000,0.0000,0.0000,0.0000,0.0000,0.0000,0.0000,0.0000,0.0000,0.0000,0.0000,0.0000,0.0000,0.0000,0.0000,-112.670,-97.215,13.959,2.682,7.951
380,833.00,0.001,-11.806,6.7998,2.5352,100.0000,0.0000,0.0000,0.0000,0.0000,0.0000,0.0000,0.0000,0.0000,0.0000,0.0000,0.0000,0.0000,0.0000,0.0000,0.0000,0.0000,0.0000,0.0000,-112.656,-97.223,13.952,2.682,7.950
381,832.00,0.001,-11.826,6.7998,2.5352,100.0000,0.0000,0.0000,0.0000,0.0000,0.0000,0.0000,0.0000,0.0000,0.0000,0.0000,0.0000,0.0000,0.0000,0.0000,0.0000,0.0000,0.0000,0.0000,-112.642,-97.231,13.945,2.682,7.949
382,831.00,0.001,-11.846,6.7998,2.5352,100.0000,0.0000,0.0000,0.0000,0.0000,0.0000,0.0000,0.0000,0.0000,0.0000,0.0000,0.0000,0.0000,0.0000,0.0000,0.0000,0.0000,0.0000,0.0000,-112.628,-97.239,13.938,2.682,7.948
383,830.00,0.001,-11.866,6.7998,2.5352,100.0000,0.0000,0.0000,0.0000,0.0000,0.0000,0.0000,0.0000,0.0000,0.0000,0.0000,0.0000,0.0000,0.0000,0.0000,0.0000,0.0000,0.0000,0.0000,-112.614,-97.247,13.930,2.682,7.948
384,829.00,0.001,-11.887,6.7998,2.5352,100.0000,0.0000,0.0000,0.0000,0.0000,0.0000,0.0000,0.0000,0.0000,0.0000,0.0000,0.0000,0.0000,0.0000,0.0000,0.0000,0.0000,0.0000,0.0000,-112.600,-97.255,13.923,2.682,7.947
385,828.00,0.001,-11.907,6.7998,2.5352,100.0000,0.0000,0.0000,0.0000,0.0000,0.0000,0.0000,0.0000,0.0000,0.0000,0.0000,0.0000,0.0000,0.0000,0.0000,0.0000,0.0000,0.0000,0.0000,-112.586,-97.263,13.916,2.682,7.946
386,827.00,0.001,-11.927,6.7998,2.5352,100.0000,0.0000,0.0000,0.0000,0.0000,0.0000,0.0000,0.0000,0.0000,0.0000,0.0000,0.0000,0.0000,0.0000,0.0000,0.0000,0.0000,0.0000,0.0000,-112.572,-97.271,13.909,2.682,7.945
387,826.00,0.001,-11.947,6.7998,2.5352,100.0000,0.0000,0.0000,0.0000,0.0000,0.0000,0.0000,0.0000,0.0000,0.0000,0.0000,0.0000,0.0000,0.0000,0.0000,0.0000,0.0000,0.0000,0.0000,-112.558,-97.279,13.901,2.682,7.944
388,825.00,0.001,-11.967,6.7998,2.5352,100.0000,0.0000,0.0000,0.0000,0.0000,0.0000,0.0000,0.0000,0.0000,0.0000,0.0000,0.0000,0.0000,0.0000,0.0000,0.0000,0.0000,0.0000,0.0000,-112.544,-97.286,13.894,2.682,7.943
389,824.00,0.001,-11.988,6.7998,2.5352,100.0000,0.0000,0.0000,0.0000,0.0000,0.0000,0.0000,0.0000,0.0000,0.0000,0.0000,0.0000,0.0000,0.0000,0.0000,0.0000,0.0000,0.0000,0.0000,-112.531,-97.294,13.887,2.682,7.942
390,823.00,0.001,-12.008,6.7998,2.5352,100.0000,0.0000,0.0000,0.0000,0.0000,0.0000,0.0000,0.0000,0.0000,0.0000,0.0000,0.0000,0.0000,0.0000,0.0000,0.0000,0.0000,0.0000,0.0000,-112.517,-97.302,13.880,2.682,7.942
391,822.00,0.001,-12.028,6.7998,2.5352,100.0000,0.0000,0.0000,0.0000,0.0000,0.0000,0.0000,0.0000,0.0000,0.0000,0.0000,0.0000,0.0000,0.0000,0.0000,0.0000,0.0000,0.0000,0.0000,-112.503,-97.310,13.873,2.682,7.941
392,821.00,0.001,-12.049,6.7998,2.5352,100.0000,0.0000,0.0000,0.0000,0.0000,0.0000,0.0000,0.0000,0.0000,0.0000,0.0000,0.0000,0.0000,0.0000,0.0000,0.0000,0.0000,0.0000,0.0000,-112.489,-97.318,13.865,2.682,7.940
393,820.00,0.001,-12.069,6.7998,2.5352,100.0000,0.0000,0.0000,0.0000,0.0000,0.0000,0.0000,0.0000,0.0000,0.0000,0.0000,0.0000,0.0000,0.0000,0.0000,0.0000,0.0000,0.0000,0.0000,-112.475,-97.326,13.858,2.682,7.939
394,819.00,0.001,-12.090,6.7998,2.5352,100.0000,0.0000,0.0000,0.0000,0.0000,0.0000,0.0000,0.0000,0.0000,0.0000,0.0000,0.0000,0.0000,0.0000,0.0000,0.0000,0.0000,0.0000,0.0000,-112.461,-97.334,13.851,2.682,7.938
395,818.00,0.001,-12.110,6.7998,2.5352,100.0000,0.0000,0.0000,0.0000,0.0000,0.0000,0.0000,0.0000,0.0000,0.0000,0.0000,0.0000,0.0000,0.0000,0.0000,0.0000,0.0000,0.0000,0.0000,-112.447,-97.342,13.843,2.682,7.937
396,817.00,0.001,-12.131,6.7998,2.5352,100.0000,0.0000,0.0000,0.0000,0.0000,0.0000,0.0000,0.0000,0.0000,0.0000,0.0000,0.0000,0.0000,0.0000,0.0000,0.0000,0.0000,0.0000,0.0000,-112.434,-97.350,13.836,2.682,7.936
397,816.00,0.001,-12.151,6.7998,2.5352,100.0000,0.0000,0.0000,0.0000,0.0000,0.0000,0.0000,0.0000,0.0000,0.0000,0.0000,0.0000,0.0000,0.0000,0.0000,0.0000,0.0000,0.0000,0.0000,-112.420,-97.358,13.829,2.682,7.935
398,815.00,0.001,-12.172,6.7998,2.5352,100.0000,0.0000,0.0000,0.0000,0.0000,0.0000,0.0000,0.0000,0.0000,0.0000,0.0000,0.0000,0.0000,0.0000,0.0000,0.0000,0.0000,0.0000,0.0000,-112.406,-97.366,13.822,2.682,7.935
399,814.00,0.001,-12.193,6.7998,2.5352,100.0000,0.0000,0.0000,0.0000,0.0000,0.0000,0.0000,0.0000,0.0000,0.0000,0.0000,0.0000,0.0000,0.0000,0.0000,0.0000,0.0000,0.0000,0.0000,-112.392,-97.374,13.814,2.682,7.934
400,813.00,0.001,-12.213,6.7998,2.5352,100.0000,0.0000,0.0000,0.0000,0.0000,0.0000,0.0000,0.0000,0.0000,0.0000,0.0000,0.0000,0.0000,0.0000,0.0000,0.0000,0.0000,0.0000,0.0000,-112.378,-97.382,13.807,2.682,7.933
401,812.00,0.001,-12.234,6.7998,2.5352,100.0000,0.0000,0.0000,0.0000,0.0000,0.0000,0.0000,0.0000,0.0000,0.0000,0.0000,0.0000,0.0000,0.0000,0.0000,0.0000,0.0000,0.0000,0.0000,-112.364,-97.390,13.800,2.682,7.932
402,811.00,0.001,-12.255,6.7998,2.5352,100.0000,0.0000,0.0000,0.0000,0.0000,0.0000,0.0000,0.0000,0.0000,0.0000,0.0000,0.0000,0.0000,0.0000,0.0000,0.0000,0.0000,0.0000,0.0000,-112.351,-97.398,13.792,2.682,7.931
403,810.00,0.001,-12.276,6.7998,2.5352,100.0000,0.0000,0.0000,0.0000,0.0000,0.0000,0.0000,0.0000,0.0000,0.0000,0.0000,0.0000,0.0000,0.0000,0.0000,0.0000,0.0000,0.0000,0.0000,-112.337,-97.406,13.785,2.682,7.930
404,809.00,0.001,-12.296,6.7998,2.5352,100.0000,0.0000,0.0000,0.0000,0.0000,0.0000,0.0000,0.0000,0.0000,0.0000,0.0000,0.0000,0.0000,0.0000,0.0000,0.0000,0.0000,0.0000,0.0000,-112.323,-97.413,13.778,2.682,7.929
405,808.00,0.001,-12.317,6.7998,2.5352,100.0000,0.0000,0.0000,0.0000,0.0000,0.0000,0.0000,0.0000,0.0000,0.0000,0.0000,0.0000,0.0000,0.0000,0.0000,0.0000,0.0000,0.0000,0.0000,-112.309,-97.421,13.770,2.682,7.928
406,807.00,0.001,-12.338,6.7998,2.5352,100.0000,0.0000,0.0000,0.0000,0.0000,0.0000,0.0000,0.0000,0.0000,0.0000,0.0000,0.0000,0.0000,0.0000,0.0000,0.0000,0.0000,0.0000,0.0000,-112.296,-97.429,13.763,2.682,7.927
407,806.00,0.001,-12.359,6.7998,2.5352,100.0000,0.0000,0.0000,0.0000,0.0000,0.0000,0.0000,0.0000,0.0000,0.0000,0.0000,0.0000,0.0000,0.0000,0.0000,0.0000,0.0000,0.0000,0.0000,-112.282,-97.437,13.756,2.682,7.927
408,805.00,0.001,-12.380,6.7998,2.5352,100.0000,0.0000,0.0000,0.0000,0.0000,0.0000,0.0000,0.0000,0.0000,0.0000,0.0000,0.0000,0.0000,0.0000,0.0000,0.0000,0.0000,0.0000,0.0000,-112.268,-97.445,13.748,2.682,7.926
409,804.00,0.001,-12.401,6.7998,2.5352,100.0000,0.0000,0.0000,0.0000,0.0000,0.0000,0.0000,0.0000,0.0000,0.0000,0.0000,0.0000,0.0000,0.0000,0.0000,0.0000,0.0000,0.0000,0.0000,-112.254,-97.453,13.741,2.682,7.925
410,803.00,0.001,-12.422,6.7998,2.5352,100.0000,0.0000,0.0000,0.0000,0.0000,0.0000,0.0000,0.0000,0.0000,0.0000,0.0000,0.0000,0.0000,0.0000,0.0000,0.0000,0.0000,0.0000,0.0000,-112.241,-97.461,13.734,2.682,7.924
411,802.00,0.001,-12.443,6.7998,2.5352,100.0000,0.0000,0.0000,0.0000,0.0000,0.0000,0.0000,0.0000,0.0000,0.0000,0.0000,0.0000,0.0000,0.0000,0.0000,0.0000,0.0000,0.0000,0.0000,-112.227,-97.469,13.726,2.682,7.923
412,801.00,0.001,-12.465,6.7998,2.5352,100.0000,0.0000,0.0000,0.0000,0.0000,0.0000,0.0000,0.0000,0.0000,0.0000,0.0000,0.0000,0.0000,0.0000,0.0000,0.0000,0.0000,0.0000,0.0000,-112.213,-97.477,13.719,2.682,7.922
413,800.00,0.001,-12.486,6.7998,2.5352,100.0000,0.0000,0.0000,0.0000,0.0000,0.0000,0.0000,0.0000,0.0000,0.0000,0.0000,0.0000,0.0000,0.0000,0.0000,0.0000,0.0000,0.0000,0.0000,-112.199,-97.485,13.712,2.682,7.921
